raman   n
-2184.52	26.62
-2181.51	26.62
-2178.50	26.62
-2175.49	36.86
-2172.49	2.05
-2169.48	6.14
-2166.48	45.06
-2163.48	102.40
-2160.47	69.63
-2157.47	28.67
-2154.47	-10.24
-2151.48	-83.97
-2148.48	141.31
-2145.49	-30.72
-2142.49	-6.14
-2139.50	106.49
-2136.51	12.29
-2133.52	-43.01
-2130.53	-10.24
-2127.54	169.98
-2124.55	155.65
-2121.57	110.59
-2118.58	104.45
-2115.60	155.65
-2112.62	120.83
-2109.64	225.28
-2106.66	151.55
-2103.68	210.94
-2100.70	231.42
-2097.73	92.16
-2094.75	165.89
-2091.78	149.50
-2088.81	241.66
-2085.83	202.75
-2082.86	247.80
-2079.90	272.38
-2076.93	208.89
-2073.96	143.36
-2071.00	176.13
-2068.03	253.95
-2065.07	219.13
-2062.11	208.89
-2059.15	167.93
-2056.19	231.42
-2053.23	112.64
-2050.27	145.41
-2047.32	247.80
-2044.36	262.14
-2041.41	198.65
-2038.46	34.82
-2035.51	176.13
-2032.56	215.04
-2029.61	212.99
-2026.66	110.59
-2023.72	92.16
-2020.77	149.50
-2017.83	190.46
-2014.88	268.28
-2011.94	126.97
-2009.00	161.79
-2006.06	159.74
-2003.13	247.80
-2000.19	188.41
-1997.25	192.51
-1994.32	151.55
-1991.39	223.23
-1988.45	198.65
-1985.52	141.31
-1982.59	155.65
-1979.67	249.85
-1976.74	102.40
-1973.81	194.56
-1970.89	139.26
-1967.96	194.56
-1965.04	288.76
-1962.12	221.18
-1959.20	184.32
-1956.28	124.93
-1953.36	194.56
-1950.45	206.84
-1947.53	196.61
-1944.62	161.79
-1941.70	174.08
-1938.79	264.19
-1935.88	47.10
-1932.97	108.54
-1930.06	149.50
-1927.15	227.32
-1924.25	106.49
-1921.34	100.35
-1918.44	233.47
-1915.54	206.84
-1912.63	67.58
-1909.73	153.60
-1906.83	192.51
-1903.94	104.45
-1901.04	225.28
-1898.14	147.45
-1895.25	202.75
-1892.36	210.94
-1889.46	217.08
-1886.57	249.85
-1883.68	114.69
-1880.79	200.70
-1877.91	163.84
-1875.02	161.79
-1872.13	200.70
-1869.25	253.95
-1866.37	147.45
-1863.48	169.98
-1860.60	198.65
-1857.72	149.50
-1854.84	157.69
-1851.97	288.76
-1849.09	139.26
-1846.22	196.61
-1843.34	106.49
-1840.47	112.64
-1837.60	264.19
-1834.73	260.09
-1831.86	149.50
-1828.99	126.97
-1826.12	155.65
-1823.26	180.22
-1820.39	219.13
-1817.53	235.52
-1814.67	90.11
-1811.80	231.42
-1808.94	186.37
-1806.08	149.50
-1803.23	196.61
-1800.37	155.65
-1797.51	235.52
-1794.66	155.65
-1791.81	155.65
-1788.95	176.13
-1786.10	149.50
-1783.25	163.84
-1780.40	147.45
-1777.56	333.82
-1774.71	124.93
-1771.86	274.43
-1769.02	112.64
-1766.18	20.48
-1763.33	135.17
-1760.49	90.11
-1757.65	227.32
-1754.81	153.60
-1751.98	243.71
-1749.14	120.83
-1746.30	126.97
-1743.47	176.13
-1740.64	258.04
-1737.81	172.03
-1734.97	198.65
-1732.14	352.25
-1729.32	169.98
-1726.49	124.93
-1723.66	245.76
-1720.84	188.41
-1718.01	270.33
-1715.19	63.49
-1712.37	210.94
-1709.55	264.19
-1706.73	206.84
-1703.91	112.64
-1701.09	159.74
-1698.27	69.63
-1695.46	204.80
-1692.65	192.51
-1689.83	215.04
-1687.02	131.07
-1684.21	163.84
-1681.40	196.61
-1678.59	139.26
-1675.78	161.79
-1672.98	122.88
-1670.17	194.56
-1667.37	258.04
-1664.56	249.85
-1661.76	161.79
-1658.96	73.73
-1656.16	190.46
-1653.36	126.97
-1650.57	139.26
-1647.77	133.12
-1644.97	135.17
-1642.18	184.32
-1639.39	65.54
-1636.60	135.17
-1633.80	276.48
-1631.01	120.83
-1628.23	325.63
-1625.44	104.45
-1622.65	141.31
-1619.87	194.56
-1617.08	71.68
-1614.30	188.41
-1611.52	223.23
-1608.74	141.31
-1605.96	155.65
-1603.18	135.17
-1600.40	225.28
-1597.62	102.40
-1594.85	104.45
-1592.07	245.76
-1589.30	153.60
-1586.53	157.69
-1583.76	221.18
-1580.99	186.37
-1578.22	133.12
-1575.45	147.45
-1572.68	188.41
-1569.92	157.69
-1567.15	208.89
-1564.39	172.03
-1561.63	126.97
-1558.86	186.37
-1556.10	280.57
-1553.34	139.26
-1550.59	53.25
-1547.83	131.07
-1545.07	159.74
-1542.32	131.07
-1539.56	182.27
-1536.81	212.99
-1534.06	141.31
-1531.31	161.79
-1528.56	112.64
-1525.81	219.13
-1523.06	215.04
-1520.32	215.04
-1517.57	264.19
-1514.83	296.96
-1512.09	106.49
-1509.34	116.73
-1506.60	192.51
-1503.86	163.84
-1501.12	157.69
-1498.39	135.17
-1495.65	147.45
-1492.91	69.63
-1490.18	92.16
-1487.45	16.38
-1484.71	69.63
-1481.98	145.41
-1479.25	96.25
-1476.52	151.55
-1473.80	180.22
-1471.07	174.08
-1468.34	114.69
-1465.62	126.97
-1462.89	-36.86
-1460.17	206.84
-1457.45	96.25
-1454.73	221.18
-1452.01	249.85
-1449.29	249.85
-1446.57	208.89
-1443.86	161.79
-1441.14	79.87
-1438.43	135.17
-1435.71	79.87
-1433.00	131.07
-1430.29	155.65
-1427.58	337.91
-1424.87	178.17
-1422.16	241.66
-1419.46	282.62
-1416.75	206.84
-1414.05	223.23
-1411.34	96.25
-1408.64	104.45
-1405.94	210.94
-1403.24	112.64
-1400.54	139.26
-1397.84	542.71
-1395.14	309.24
-1392.45	329.72
-1389.75	145.41
-1387.06	217.08
-1384.36	247.80
-1381.67	112.64
-1378.98	65.53
-1376.29	145.41
-1373.60	225.28
-1370.91	147.45
-1368.23	182.27
-1365.54	251.90
-1362.86	204.80
-1360.17	176.13
-1357.49	153.60
-1354.81	174.08
-1352.13	137.21
-1349.45	167.93
-1346.77	153.60
-1344.09	327.68
-1341.42	202.75
-1338.74	120.83
-1336.07	329.72
-1333.39	83.97
-1330.72	276.48
-1328.05	112.64
-1325.38	196.61
-1322.71	159.74
-1320.04	86.01
-1317.37	79.87
-1314.71	122.88
-1312.04	210.94
-1309.38	157.69
-1306.72	198.65
-1304.05	100.35
-1301.39	75.77
-1298.73	210.94
-1296.08	137.21
-1293.42	122.88
-1290.76	186.37
-1288.10	194.56
-1285.45	55.30
-1282.80	96.25
-1280.14	155.65
-1277.49	165.89
-1274.84	188.41
-1272.19	194.56
-1269.54	172.03
-1266.90	196.61
-1264.25	247.80
-1261.60	172.03
-1258.96	268.28
-1256.32	131.07
-1253.67	202.75
-1251.03	126.97
-1248.39	98.30
-1245.75	165.89
-1243.11	169.98
-1240.48	49.15
-1237.84	241.66
-1235.20	202.75
-1232.57	81.92
-1229.94	237.56
-1227.31	172.03
-1224.67	129.02
-1222.04	169.98
-1219.41	104.45
-1216.79	135.17
-1214.16	155.65
-1211.53	165.89
-1208.91	90.11
-1206.28	176.13
-1203.66	227.32
-1201.04	165.89
-1198.42	305.15
-1195.80	239.61
-1193.18	141.31
-1190.56	210.94
-1187.94	63.49
-1185.33	204.80
-1182.71	161.79
-1180.10	198.65
-1177.49	309.24
-1174.87	143.36
-1172.26	26.62
-1169.65	256.00
-1167.04	135.17
-1164.44	206.84
-1161.83	137.21
-1159.22	75.77
-1156.62	288.76
-1154.01	194.56
-1151.41	61.44
-1148.81	88.06
-1146.21	169.98
-1143.61	247.80
-1141.01	169.98
-1138.41	63.49
-1135.81	106.49
-1133.22	217.08
-1130.62	204.80
-1128.03	182.27
-1125.44	120.83
-1122.84	331.77
-1120.25	96.25
-1117.66	239.61
-1115.07	124.93
-1112.49	124.93
-1109.90	159.74
-1107.31	65.53
-1104.73	215.04
-1102.14	174.08
-1099.56	157.69
-1096.98	100.35
-1094.40	12.29
-1091.82	186.37
-1089.24	208.89
-1086.66	149.50
-1084.08	178.17
-1081.51	227.32
-1078.93	81.92
-1076.36	233.47
-1073.79	163.84
-1071.21	210.94
-1068.64	180.22
-1066.07	69.63
-1063.50	251.90
-1060.93	98.30
-1058.37	262.14
-1055.80	67.58
-1053.24	147.45
-1050.67	129.02
-1048.11	190.46
-1045.55	81.92
-1042.99	192.51
-1040.42	202.75
-1037.87	149.50
-1035.31	79.87
-1032.75	135.17
-1030.19	167.93
-1027.64	155.65
-1025.08	161.79
-1022.53	149.50
-1019.98	71.68
-1017.43	108.54
-1014.88	223.23
-1012.33	90.11
-1009.78	122.88
-1007.23	100.35
-1004.68	219.13
-1002.14	180.22
-999.59	215.04
-997.05	129.02
-994.51	122.88
-991.96	192.51
-989.42	206.84
-986.88	133.12
-984.34	28.67
-981.81	40.96
-979.27	112.64
-976.73	243.71
-974.20	36.86
-971.66	147.45
-969.13	69.63
-966.60	145.41
-964.07	126.97
-961.54	147.45
-959.01	90.11
-956.48	184.32
-953.95	-20.48
-951.43	163.84
-948.90	30.72
-946.38	215.04
-943.85	151.55
-941.33	155.65
-938.81	20.48
-936.29	186.37
-933.77	204.80
-931.25	274.43
-928.73	122.88
-926.22	63.49
-923.70	90.11
-921.19	92.16
-918.67	100.35
-916.16	137.21
-913.65	159.74
-911.14	249.85
-908.63	100.35
-906.12	198.65
-903.61	143.36
-901.10	210.94
-898.59	51.20
-896.09	65.54
-893.59	67.58
-891.08	239.61
-888.58	227.32
-886.08	165.89
-883.58	81.92
-881.08	198.65
-878.58	172.03
-876.08	172.03
-873.58	114.69
-871.09	151.55
-868.59	81.92
-866.10	112.64
-863.61	100.35
-861.12	122.88
-858.62	210.94
-856.13	247.80
-853.64	65.53
-851.16	247.80
-848.67	92.16
-846.18	75.77
-843.70	276.48
-841.21	194.56
-838.73	184.32
-836.25	169.98
-833.77	131.07
-831.28	178.17
-828.81	169.98
-826.33	135.17
-823.85	153.60
-821.37	221.18
-818.90	133.12
-816.42	151.55
-813.95	124.93
-811.47	208.89
-809.00	184.32
-806.53	122.88
-804.06	184.32
-801.59	157.69
-799.12	129.02
-796.65	202.75
-794.19	280.57
-791.72	86.01
-789.26	202.75
-786.79	108.54
-784.33	198.65
-781.87	153.60
-779.41	184.32
-776.95	36.86
-774.49	235.52
-772.03	165.89
-769.57	40.96
-767.12	104.45
-764.66	100.35
-762.21	92.16
-759.75	102.40
-757.30	135.17
-754.85	165.89
-752.40	194.56
-749.95	100.35
-747.50	241.66
-745.05	182.27
-742.60	137.21
-740.16	106.49
-737.71	131.07
-735.27	204.80
-732.82	122.88
-730.38	143.36
-727.94	53.25
-725.50	92.16
-723.06	129.02
-720.62	77.82
-718.18	98.30
-715.74	147.45
-713.31	186.37
-710.87	217.08
-708.44	135.17
-706.01	118.78
-703.57	204.80
-701.14	223.23
-698.71	210.94
-696.28	184.32
-693.85	98.30
-691.42	118.78
-689.00	169.98
-686.57	69.63
-684.15	65.53
-681.72	104.45
-679.30	165.89
-676.88	90.11
-674.45	188.41
-672.03	145.41
-669.61	139.26
-667.20	208.89
-664.78	153.60
-662.36	182.27
-659.94	251.90
-657.53	196.61
-655.12	206.84
-652.70	153.60
-650.29	163.84
-647.88	182.27
-645.47	167.93
-643.06	188.41
-640.65	59.39
-638.24	212.99
-635.83	147.45
-633.43	286.72
-631.02	73.73
-628.62	239.61
-626.22	172.03
-623.81	198.65
-621.41	200.70
-619.01	174.08
-616.61	120.83
-614.21	167.93
-611.81	247.80
-609.42	137.21
-607.02	176.13
-604.63	229.37
-602.23	206.84
-599.84	223.23
-597.45	126.97
-595.05	176.13
-592.66	104.45
-590.27	210.94
-587.88	61.44
-585.50	106.49
-583.11	206.84
-580.72	200.70
-578.34	296.96
-575.95	53.25
-573.57	104.45
-571.19	225.28
-568.80	227.32
-566.42	116.73
-564.04	178.17
-561.66	186.37
-559.29	178.17
-556.91	223.23
-554.53	135.17
-552.16	174.08
-549.78	210.94
-547.41	-18.43
-545.03	196.61
-542.66	188.41
-540.29	178.17
-537.92	155.65
-535.55	98.30
-533.18	245.76
-530.81	135.17
-528.45	94.21
-526.08	190.46
-523.72	188.41
-521.35	204.80
-518.99	151.55
-516.63	143.36
-514.27	108.54
-511.90	116.73
-509.54	174.08
-507.19	223.23
-504.83	274.43
-502.47	243.71
-500.11	96.25
-497.76	124.93
-495.40	129.02
-493.05	225.28
-490.70	182.27
-488.35	143.36
-486.00	157.69
-483.65	272.38
-481.30	176.13
-478.95	284.67
-476.60	161.79
-474.25	221.18
-471.91	69.63
-469.56	245.76
-467.22	161.79
-464.88	274.43
-462.53	192.51
-460.19	204.80
-457.85	116.73
-455.51	184.32
-453.17	282.62
-450.84	86.01
-448.50	223.23
-446.16	81.92
-443.83	215.04
-441.49	176.13
-439.16	249.85
-436.83	149.50
-434.50	280.57
-432.16	172.03
-429.83	323.58
-427.50	32.77
-425.18	245.76
-422.85	251.90
-420.52	143.36
-418.20	110.59
-415.87	98.30
-413.55	149.50
-411.22	182.27
-408.90	133.12
-406.58	26.62
-404.26	178.17
-401.94	176.13
-399.62	198.65
-397.30	239.61
-394.99	182.27
-392.67	135.17
-390.35	71.68
-388.04	200.70
-385.73	178.17
-383.41	63.49
-381.10	77.82
-378.79	73.73
-376.48	157.69
-374.17	219.13
-371.86	2.05
-369.55	167.93
-367.25	188.41
-364.94	124.93
-362.64	133.12
-360.33	120.83
-358.03	59.39
-355.73	149.50
-353.42	147.45
-351.12	200.70
-348.82	219.13
-346.52	126.97
-344.23	153.60
-341.93	118.78
-339.63	194.56
-337.34	45.06
-335.04	157.69
-332.75	114.69
-330.45	245.76
-328.16	118.78
-325.87	86.01
-323.58	315.39
-321.29	176.13
-319.00	114.69
-316.71	217.08
-314.42	227.32
-312.14	139.26
-309.85	110.59
-307.57	92.16
-305.28	299.00
-303.00	157.69
-300.72	149.50
-298.44	65.53
-296.16	24.58
-293.88	176.13
-291.60	129.02
-289.32	260.09
-287.04	167.93
-284.77	167.93
-282.49	147.45
-280.22	116.73
-277.94	96.25
-275.67	100.35
-273.40	180.22
-271.13	135.17
-268.85	221.18
-266.59	253.95
-264.32	149.50
-262.05	159.74
-259.78	108.54
-257.51	186.37
-255.25	122.88
-252.98	98.30
-250.72	169.98
-248.46	208.89
-246.20	22.53
-243.93	143.36
-241.67	36.86
-239.41	49.15
-237.16	186.37
-234.90	161.79
-232.64	169.98
-230.38	161.79
-228.13	67.58
-225.87	104.45
-223.62	94.21
-221.37	108.54
-219.11	26.62
-216.86	149.50
-214.61	174.08
-212.36	167.93
-210.11	102.40
-207.87	92.16
-205.62	120.83
-203.37	69.63
-201.13	106.49
-198.88	63.49
-196.64	55.30
-194.39	131.07
-192.15	227.32
-189.91	129.02
-187.67	141.31
-185.43	182.27
-183.19	200.70
-180.95	112.64
-178.72	86.01
-176.48	122.88
-174.24	264.19
-172.01	59.39
-169.77	77.82
-167.54	192.51
-165.31	18.43
-163.08	90.11
-160.85	219.13
-158.62	169.98
-156.39	83.97
-154.16	129.02
-151.93	131.07
-149.70	114.69
-147.48	190.46
-145.25	188.41
-143.03	108.54
-140.81	141.31
-138.58	157.69
-136.36	243.71
-134.14	73.73
-131.92	126.97
-129.70	159.74
-127.48	124.93
-125.26	137.21
-123.05	149.50
-120.83	102.40
-118.62	200.70
-116.40	83.97
-114.19	26.62
-111.97	219.13
-109.76	139.26
-107.55	45.06
-105.34	137.21
-103.13	18.43
-100.92	116.73
-98.71	204.80
-96.51	198.65
-94.30	235.52
-92.09	178.17
-89.89	167.93
-87.69	176.13
-85.48	108.54
-83.28	4.10
-81.08	208.89
-78.88	155.65
-76.68	22.53
-74.48	270.33
-72.28	165.89
-70.08	155.65
-67.88	178.17
-65.69	32.77
-63.49	167.93
-61.30	225.28
-59.11	143.36
-56.91	63.49
-54.72	206.84
-52.53	155.65
-50.34	112.64
-48.15	290.81
-45.96	75.77
-43.77	135.17
-41.59	137.21
-39.40	36.86
-37.21	225.28
-35.03	8.19
-32.84	126.97
-30.66	-10.24
-28.48	188.41
-26.30	172.03
-24.12	212.99
-21.94	102.40
-19.76	204.80
-17.58	262.14
-15.40	487.42
-13.22	983.02
-11.05	1267.69
-8.87	1632.23
-6.70	1951.71
-4.52	2168.80
-2.35	2064.35
-0.18	2088.93
1.99	2269.15
4.16	1939.43
6.33	1609.70
8.50	1261.55
10.67	1044.46
12.84	1212.40
15.00	894.96
17.17	804.85
19.33	628.73
21.50	436.22
23.66	440.31
25.83	352.25
27.99	358.39
30.15	317.44
32.31	276.48
34.47	184.32
36.63	141.31
38.79	137.21
40.94	186.37
43.10	276.48
45.25	131.07
47.41	108.54
49.56	100.35
51.72	139.26
53.87	157.69
56.02	184.32
58.17	176.13
60.32	143.36
62.47	159.74
64.62	178.17
66.77	204.80
68.92	133.12
71.06	139.26
73.21	176.13
75.35	145.41
77.50	30.72
79.64	247.80
81.78	294.91
83.92	161.79
86.06	112.64
88.20	122.88
90.34	165.89
92.48	86.01
94.62	100.35
96.76	196.61
98.89	239.61
101.03	47.10
103.16	124.93
105.30	233.47
107.43	245.76
109.56	235.52
111.69	217.08
113.82	200.70
115.95	337.91
118.08	280.57
120.21	346.11
122.34	313.34
124.47	385.02
126.59	425.98
128.72	370.68
130.84	503.80
132.97	526.33
135.09	483.32
137.21	544.76
139.33	475.13
141.45	716.79
143.57	641.01
145.69	628.73
147.81	802.80
149.93	776.18
152.05	858.10
154.16	954.35
156.28	980.98
158.39	1089.52
160.51	1259.50
162.62	1318.89
164.73	1470.44
166.85	1777.64
168.96	1837.03
171.07	1986.53
173.18	2234.33
175.28	2230.24
177.39	2344.92
179.50	2394.08
181.61	2480.09
183.71	2445.27
185.82	2346.97
187.92	2308.06
190.02	2105.31
192.13	1845.22
194.23	1886.18
196.33	1660.90
198.43	1472.49
200.53	1372.14
202.63	1294.32
204.72	1327.08
206.82	1023.98
208.92	1075.18
211.01	950.26
213.11	937.97
215.20	913.39
217.30	770.04
219.39	772.08
221.48	759.80
223.57	737.27
225.66	706.55
227.75	614.39
229.84	532.47
231.93	565.24
234.02	520.18
236.10	565.24
238.19	542.71
240.28	569.34
242.36	616.44
244.44	669.69
246.53	501.75
248.61	585.72
250.69	702.45
252.77	563.19
254.85	602.10
256.93	659.45
259.01	577.53
261.09	438.27
263.16	509.94
265.24	665.59
267.32	442.36
269.39	358.39
271.46	372.73
273.54	378.87
275.61	462.84
277.68	325.63
279.75	438.27
281.82	368.63
283.89	440.31
285.96	264.19
288.03	319.48
290.10	282.62
292.16	272.38
294.23	292.86
296.29	278.52
298.36	366.59
300.42	278.52
302.49	497.66
304.55	401.40
306.61	233.47
308.67	282.62
310.73	296.96
312.79	344.06
314.85	434.17
316.90	313.34
318.96	352.25
321.02	239.61
323.07	438.27
325.13	292.86
327.18	350.20
329.24	350.20
331.29	387.07
333.34	415.74
335.39	344.06
337.44	294.91
339.49	327.68
341.54	421.88
343.59	284.67
345.64	315.39
347.68	239.61
349.73	309.24
351.77	231.42
353.82	303.10
355.86	317.44
357.90	380.92
359.95	260.09
361.99	294.91
364.03	374.78
366.07	321.53
368.11	307.20
370.15	274.43
372.19	407.55
374.22	409.59
376.26	323.58
378.29	458.74
380.33	387.07
382.36	393.21
384.40	339.96
386.43	546.81
388.46	456.70
390.49	464.89
392.52	376.83
394.55	473.08
396.58	432.12
398.61	538.62
400.64	409.59
402.67	452.60
404.69	393.21
406.72	473.08
408.74	471.03
410.77	411.64
412.79	501.75
414.81	548.86
416.84	569.34
418.86	419.83
420.88	499.70
422.90	219.13
424.92	423.93
426.94	415.74
428.95	389.11
430.97	278.52
432.99	448.51
435.00	389.11
437.02	368.63
439.03	495.61
441.04	411.64
443.06	393.21
445.07	364.54
447.08	366.59
449.09	428.03
451.10	368.63
453.11	366.59
455.12	378.87
457.13	325.63
459.13	479.22
461.14	372.73
463.14	423.93
465.15	233.47
467.15	430.07
469.16	409.59
471.16	479.22
473.16	464.89
475.16	407.55
477.16	323.58
479.16	409.59
481.16	479.22
483.16	432.12
485.16	374.78
487.15	468.98
489.15	432.12
491.15	307.20
493.14	399.35
495.14	387.07
497.13	548.86
499.12	444.41
501.11	391.16
503.11	403.45
505.10	493.56
507.09	544.76
509.07	468.98
511.06	372.73
513.05	430.07
515.04	538.62
517.02	552.95
519.01	567.29
521.00	563.19
522.98	536.57
524.96	507.90
526.95	661.49
528.93	753.65
530.91	614.39
532.89	534.52
534.87	677.88
536.85	561.14
538.83	565.24
540.81	522.23
542.78	536.57
544.76	548.86
546.74	509.94
548.71	526.33
550.69	483.32
552.66	423.93
554.63	442.36
556.60	417.79
558.58	333.82
560.55	348.15
562.52	358.39
564.49	428.03
566.46	483.32
568.42	282.62
570.39	321.53
572.36	425.98
574.32	385.02
576.29	268.28
578.25	354.30
580.22	364.54
582.18	423.93
584.14	432.12
586.11	395.26
588.07	557.05
590.03	393.21
591.99	579.58
593.95	409.59
595.90	518.14
597.86	716.79
599.82	964.59
601.78	1026.03
603.73	1202.16
605.69	1312.75
607.64	1421.29
609.59	1462.25
611.55	1466.35
613.50	1406.95
615.45	1398.76
617.40	1345.52
619.35	940.02
621.30	958.45
623.25	903.15
625.20	796.66
627.15	686.07
629.09	669.69
631.04	620.53
632.98	645.11
634.93	497.66
636.87	579.58
638.82	438.27
640.76	520.18
642.70	509.94
644.64	393.21
646.58	561.14
648.52	333.82
650.46	368.63
652.40	407.55
654.34	382.97
656.27	425.98
658.21	325.63
660.15	385.02
662.08	372.73
664.02	374.78
665.95	460.79
667.88	491.51
669.82	460.79
671.75	350.20
673.68	430.07
675.61	557.05
677.54	516.09
679.47	520.18
681.40	454.65
683.32	538.62
685.25	534.52
687.18	526.33
689.10	407.55
691.03	440.31
692.95	468.98
694.87	481.27
696.80	481.27
698.72	520.18
700.64	458.74
702.56	548.86
704.48	358.39
706.40	385.02
708.32	456.70
710.24	448.51
712.16	432.12
714.07	380.92
715.99	374.78
717.90	428.03
719.82	401.40
721.73	555.00
723.65	356.35
725.56	503.80
727.47	446.46
729.38	458.74
731.29	382.97
733.20	356.35
735.11	468.98
737.02	274.43
738.93	520.18
740.84	344.06
742.74	419.83
744.65	368.63
746.55	419.83
748.46	473.08
750.36	411.64
752.27	364.54
754.17	452.60
756.07	247.80
757.97	346.11
759.87	395.26
761.77	516.09
763.67	385.02
765.57	401.40
767.47	395.26
769.37	436.22
771.26	509.94
773.16	329.72
775.06	364.54
776.95	538.62
778.84	546.81
780.74	487.42
782.63	552.95
784.52	503.80
786.41	677.88
788.30	712.69
790.19	634.87
792.08	753.65
793.97	837.62
795.86	647.16
797.75	704.50
799.63	614.39
801.52	575.48
803.41	591.86
805.29	518.14
807.18	520.18
809.06	483.32
810.94	483.32
812.82	526.33
814.70	495.61
816.59	460.79
818.47	487.42
820.35	401.40
822.22	548.86
