raman   n
-2184.52	-28.67
-2181.51	-28.67
-2178.50	-28.67
-2175.49	24.58
-2172.49	-43.01
-2169.48	301.05
-2166.48	-55.30
-2163.48	-57.34
-2160.47	-108.54
-2157.47	233.47
-2154.47	-235.52
-2151.48	-32.77
-2148.48	-32.77
-2145.49	-262.14
-2142.49	-43.01
-2139.50	129.02
-2136.51	229.37
-2133.52	178.17
-2130.53	436.22
-2127.54	595.96
-2124.55	585.72
-2121.57	827.38
-2118.58	647.16
-2115.60	686.07
-2112.62	1021.94
-2109.64	710.65
-2106.66	1048.56
-2103.68	925.68
-2100.70	835.57
-2097.73	823.28
-2094.75	886.77
-2091.78	919.54
-2088.81	647.16
-2085.83	559.10
-2082.86	1189.87
-2079.90	880.63
-2076.93	1056.75
-2073.96	798.71
-2071.00	821.24
-2068.03	995.31
-2065.07	593.91
-2062.11	868.34
-2059.15	884.72
-2056.19	727.03
-2053.23	940.02
-2050.27	1042.42
-2047.32	1124.33
-2044.36	962.55
-2041.41	856.05
-2038.46	628.73
-2035.51	862.19
-2032.56	1284.08
-2029.61	1007.60
-2026.66	864.24
-2023.72	897.01
-2020.77	1134.57
-2017.83	1038.32
-2014.88	606.20
-2011.94	587.77
-2009.00	911.35
-2006.06	954.35
-2003.13	1036.27
-2000.19	468.98
-1997.25	579.58
-1994.32	835.57
-1991.39	757.75
-1988.45	989.17
-1985.52	1028.08
-1982.59	790.52
-1979.67	1036.27
-1976.74	843.76
-1973.81	1093.62
-1970.89	888.82
-1967.96	917.49
-1965.04	800.76
-1962.12	909.30
-1959.20	1069.04
-1956.28	870.39
-1953.36	811.00
-1950.45	897.01
-1947.53	749.56
-1944.62	819.19
-1941.70	776.18
-1938.79	733.17
-1935.88	839.67
-1932.97	970.74
-1930.06	653.30
-1927.15	579.58
-1924.25	735.22
-1921.34	546.81
-1918.44	917.49
-1915.54	847.86
-1912.63	755.70
-1909.73	651.25
-1906.83	1046.51
-1903.94	702.45
-1901.04	729.08
-1898.14	1005.55
-1895.25	501.75
-1892.36	759.80
-1889.46	753.65
-1886.57	602.10
-1883.68	786.42
-1880.79	921.59
-1877.91	722.93
-1875.02	589.82
-1872.13	821.24
-1869.25	757.75
-1866.37	684.02
-1863.48	921.59
-1860.60	1120.24
-1857.72	622.58
-1854.84	747.51
-1851.97	780.28
-1849.09	915.44
-1846.22	755.70
-1843.34	849.91
-1840.47	663.54
-1837.60	585.72
-1834.73	774.13
-1831.86	974.83
-1828.99	391.16
-1826.12	780.28
-1823.26	870.39
-1820.39	722.93
-1817.53	722.93
-1814.67	675.83
-1811.80	745.46
-1808.94	710.65
-1806.08	823.28
-1803.23	606.20
-1800.37	731.12
-1797.51	909.30
-1794.66	749.56
-1791.81	339.96
-1788.95	571.38
-1786.10	907.25
-1783.25	874.48
-1780.40	649.21
-1777.56	86.01
-1774.71	786.42
-1771.86	628.73
-1769.02	663.54
-1766.18	624.63
-1763.33	630.77
-1760.49	831.48
-1757.65	944.11
-1754.81	239.61
-1751.98	804.85
-1749.14	860.15
-1746.30	571.38
-1743.47	716.79
-1740.64	808.95
-1737.81	638.97
-1734.97	706.55
-1732.14	802.80
-1729.32	866.29
-1726.49	870.39
-1723.66	618.49
-1720.84	716.79
-1718.01	1040.37
-1715.19	571.38
-1712.37	514.04
-1709.55	749.56
-1706.73	712.69
-1703.91	737.27
-1701.09	487.42
-1698.27	741.36
-1695.46	946.16
-1692.65	874.48
-1689.83	581.62
-1687.02	544.76
-1684.21	684.02
-1681.40	724.98
-1678.59	493.56
-1675.78	550.90
-1672.98	432.12
-1670.17	1050.61
-1667.37	811.00
-1664.56	614.39
-1661.76	593.91
-1658.96	698.36
-1656.16	598.01
-1653.36	819.19
-1650.57	692.21
-1647.77	401.40
-1644.97	464.89
-1642.18	643.06
-1639.39	536.57
-1636.60	974.83
-1633.80	589.82
-1631.01	575.48
-1628.23	899.06
-1625.44	868.34
-1622.65	892.91
-1619.87	929.78
-1617.08	690.17
-1614.30	577.53
-1611.52	622.58
-1608.74	653.30
-1605.96	395.26
-1603.18	839.67
-1600.40	526.33
-1597.62	923.63
-1594.85	811.00
-1592.07	755.70
-1589.30	698.36
-1586.53	845.81
-1583.76	735.22
-1580.99	546.81
-1578.22	460.79
-1575.45	598.01
-1572.68	614.39
-1569.92	614.39
-1567.15	385.02
-1564.39	618.49
-1561.63	1007.60
-1558.86	647.16
-1556.10	409.59
-1553.34	1110.00
-1550.59	700.41
-1547.83	901.11
-1545.07	1009.65
-1542.32	442.36
-1539.56	806.90
-1536.81	559.10
-1534.06	710.65
-1531.31	751.60
-1528.56	604.15
-1525.81	952.31
-1523.06	727.03
-1520.32	3651.53
-1517.57	634.87
-1514.83	722.93
-1512.09	755.70
-1509.34	493.56
-1506.60	737.27
-1503.86	552.95
-1501.12	477.18
-1498.39	643.06
-1495.65	741.36
-1492.91	724.98
-1490.18	886.77
-1487.45	591.86
-1484.71	522.23
-1481.98	983.03
-1479.25	716.79
-1476.52	733.17
-1473.80	460.79
-1471.07	481.27
-1468.34	550.90
-1465.62	772.08
-1462.89	751.60
-1460.17	890.87
-1457.45	686.07
-1454.73	481.27
-1452.01	739.32
-1449.29	890.87
-1446.57	548.86
-1443.86	743.41
-1441.14	1189.87
-1438.43	460.79
-1435.71	481.27
-1433.00	557.05
-1430.29	761.84
-1427.58	581.62
-1424.87	376.83
-1422.16	911.35
-1419.46	714.74
-1416.75	282.62
-1414.05	653.30
-1411.34	501.75
-1408.64	575.48
-1405.94	511.99
-1403.24	677.88
-1400.54	638.97
-1397.84	-3123.15
-1395.14	618.49
-1392.45	964.59
-1389.75	585.72
-1387.06	698.36
-1384.36	497.66
-1381.67	786.42
-1378.98	698.36
-1376.29	763.89
-1373.60	620.53
-1370.91	847.86
-1368.23	534.52
-1365.54	811.00
-1362.86	628.73
-1360.17	837.62
-1357.49	833.52
-1354.81	790.52
-1352.13	366.59
-1349.45	876.53
-1346.77	831.48
-1344.09	970.74
-1341.42	700.41
-1338.74	567.29
-1336.07	602.10
-1333.39	610.29
-1330.72	841.72
-1328.05	401.40
-1325.38	428.03
-1322.71	735.22
-1320.04	188.41
-1317.37	761.84
-1314.71	665.59
-1312.04	608.25
-1309.38	581.62
-1306.72	706.55
-1304.05	690.17
-1301.39	757.75
-1298.73	425.98
-1296.08	661.49
-1293.42	489.46
-1290.76	649.21
-1288.10	724.98
-1285.45	299.00
-1282.80	577.53
-1280.14	847.86
-1277.49	690.17
-1274.84	485.37
-1272.19	604.15
-1269.54	659.45
-1266.90	636.92
-1264.25	759.80
-1261.60	755.70
-1258.96	712.69
-1256.32	675.83
-1253.67	862.19
-1251.03	817.14
-1248.39	694.26
-1245.75	854.00
-1243.11	714.74
-1240.48	507.90
-1237.84	722.93
-1235.20	911.35
-1232.57	571.38
-1229.94	538.62
-1227.31	380.92
-1224.67	368.63
-1222.04	507.90
-1219.41	526.33
-1216.79	528.38
-1214.16	733.17
-1211.53	657.40
-1208.91	593.91
-1206.28	233.47
-1203.66	753.65
-1201.04	727.03
-1198.42	557.05
-1195.80	583.67
-1193.18	626.68
-1190.56	655.35
-1187.94	776.18
-1185.33	348.15
-1182.71	487.42
-1180.10	288.76
-1177.49	401.40
-1174.87	657.40
-1172.26	567.29
-1169.65	528.38
-1167.04	647.16
-1164.44	860.15
-1161.83	600.05
-1159.22	423.93
-1156.62	460.79
-1154.01	329.72
-1151.41	401.40
-1148.81	495.61
-1146.21	491.51
-1143.61	526.33
-1141.01	667.64
-1138.41	356.35
-1135.81	415.74
-1133.22	671.73
-1130.62	1173.49
-1128.03	761.84
-1125.44	630.77
-1122.84	509.94
-1120.25	903.15
-1117.66	425.98
-1115.07	542.71
-1112.49	428.03
-1109.90	749.56
-1107.31	643.06
-1104.73	1458.15
-1102.14	641.01
-1099.56	454.65
-1096.98	532.47
-1094.40	413.69
-1091.82	497.66
-1089.24	905.20
-1086.66	511.99
-1084.08	571.38
-1081.51	440.31
-1078.93	536.57
-1076.36	561.14
-1073.79	489.46
-1071.21	626.68
-1068.64	458.75
-1066.07	452.60
-1063.50	567.29
-1060.93	684.02
-1058.37	774.13
-1055.80	532.47
-1053.24	577.53
-1050.67	698.36
-1048.11	837.62
-1045.55	616.44
-1042.99	321.53
-1040.42	364.54
-1037.87	821.24
-1035.31	563.19
-1032.75	522.23
-1030.19	675.83
-1027.64	559.10
-1025.08	464.89
-1022.53	397.31
-1019.98	262.14
-1017.43	296.96
-1014.88	548.86
-1012.33	391.16
-1009.78	489.46
-1007.23	786.42
-1004.68	397.31
-1002.14	651.25
-999.59	403.45
-997.05	952.31
-994.51	688.12
-991.96	501.75
-989.42	698.36
-986.88	511.99
-984.34	446.46
-981.81	499.70
-979.27	477.18
-976.73	411.64
-974.20	118.78
-971.66	487.42
-969.13	511.99
-966.60	342.01
-964.07	636.92
-961.54	137.21
-959.01	530.42
-956.48	620.53
-953.95	653.30
-951.43	600.05
-948.90	489.46
-946.38	534.52
-943.85	444.41
-941.33	511.99
-938.81	638.97
-936.29	401.40
-933.77	583.67
-931.25	694.26
-928.73	745.46
-926.22	620.53
-923.70	458.74
-921.19	534.52
-918.67	217.08
-916.16	417.79
-913.65	296.96
-911.14	528.38
-908.63	632.82
-906.12	475.13
-903.61	495.61
-901.10	573.43
-898.59	903.15
-896.09	495.61
-893.59	700.41
-891.08	604.15
-888.58	649.21
-886.08	765.94
-883.58	473.08
-881.08	530.42
-878.58	813.04
-876.08	897.01
-873.58	817.14
-871.09	663.54
-868.59	765.94
-866.10	602.10
-863.61	182.27
-861.12	686.07
-858.62	468.98
-856.13	552.95
-853.64	636.92
-851.16	835.57
-848.67	620.53
-846.18	520.18
-843.70	454.65
-841.21	499.70
-838.73	606.20
-836.25	690.17
-833.77	258.04
-831.28	471.03
-828.81	-655.35
-826.33	503.80
-823.85	628.73
-821.37	618.49
-818.90	565.24
-816.42	587.77
-813.95	755.70
-811.47	456.70
-809.00	-804.85
-806.53	657.40
-804.06	681.97
-801.59	370.68
-799.12	372.73
-796.65	774.13
-794.19	399.35
-791.72	251.90
-789.26	462.84
-786.79	718.84
-784.33	407.55
-781.87	348.15
-779.41	475.13
-776.95	319.48
-774.49	634.87
-772.03	485.37
-769.57	534.52
-767.12	325.63
-764.66	618.49
-762.21	759.80
-759.75	882.67
-757.30	366.59
-754.85	591.86
-752.40	266.24
-749.95	325.63
-747.50	305.15
-745.05	604.15
-742.60	540.66
-740.16	409.59
-737.71	372.73
-735.27	632.82
-732.82	669.69
-730.38	555.00
-727.94	313.34
-725.50	1665.00
-723.06	428.03
-720.62	555.00
-718.18	565.24
-715.74	454.65
-713.31	223.23
-710.87	583.67
-708.44	358.39
-706.01	491.51
-703.57	499.70
-701.14	432.12
-698.71	532.47
-696.28	903.15
-693.85	354.30
-691.42	319.48
-689.00	460.79
-686.57	702.45
-684.15	446.46
-681.72	391.16
-679.30	444.41
-676.88	485.37
-674.45	495.61
-672.03	378.87
-669.61	630.77
-667.20	210.94
-664.78	409.59
-662.36	8.19
-659.94	352.25
-657.53	628.73
-655.12	425.98
-652.70	569.34
-650.29	776.18
-647.88	514.04
-645.47	618.49
-643.06	520.18
-640.65	466.94
-638.24	456.70
-635.83	374.78
-633.43	434.17
-631.02	655.35
-628.62	763.89
-626.22	483.32
-623.81	516.09
-621.41	409.59
-619.01	163.84
-616.61	739.32
-614.21	630.77
-611.81	591.86
-609.42	450.55
-607.02	2011.11
-604.63	555.00
-602.23	430.07
-599.84	583.67
-597.45	448.51
-595.05	628.73
-592.66	669.69
-590.27	282.62
-587.88	761.84
-585.50	595.96
-583.11	731.12
-580.72	479.22
-578.34	843.76
-575.95	454.65
-573.57	475.13
-571.19	522.23
-568.80	348.15
-566.42	708.60
-564.04	626.68
-561.66	657.40
-559.29	491.51
-556.91	360.44
-554.53	409.59
-552.16	598.01
-549.78	655.35
-547.41	702.45
-545.03	538.62
-542.66	483.32
-540.29	552.95
-537.92	655.35
-535.55	966.64
-533.18	485.37
-530.81	428.03
-528.45	-399.35
-526.08	477.18
-523.72	716.79
-521.35	749.56
-518.99	536.57
-516.63	428.03
-514.27	532.47
-511.90	555.00
-509.54	638.97
-507.19	417.79
-504.83	767.99
-502.47	413.69
-500.11	815.09
-497.76	614.39
-495.40	714.74
-493.05	757.75
-490.70	837.62
-488.35	663.54
-486.00	638.97
-483.65	745.46
-481.30	942.07
-478.95	802.80
-476.60	651.25
-474.25	368.63
-471.91	608.25
-469.56	778.23
-467.22	929.78
-464.88	688.12
-462.53	743.41
-460.19	753.65
-457.85	1056.75
-455.51	624.63
-453.17	-5238.70
-450.84	475.13
-448.50	747.51
-446.16	630.77
-443.83	821.24
-441.49	819.19
-439.16	880.63
-436.83	749.56
-434.50	1071.09
-432.16	950.26
-429.83	770.04
-427.50	1036.27
-425.18	800.76
-422.85	1099.76
-420.52	813.04
-418.20	800.76
-415.87	874.48
-413.55	817.14
-411.22	657.40
-408.90	782.32
-406.58	786.42
-404.26	604.15
-401.94	688.12
-399.62	727.03
-397.30	727.03
-394.99	886.77
-392.67	657.40
-390.35	690.17
-388.04	763.89
-385.73	688.12
-383.41	362.49
-381.10	962.55
-378.79	638.97
-376.48	688.12
-374.17	688.12
-371.86	667.64
-369.55	518.14
-367.25	616.44
-364.94	792.56
-362.64	743.41
-360.33	757.75
-358.03	563.19
-355.73	624.63
-353.42	636.92
-351.12	815.09
-348.82	673.78
-346.52	849.91
-344.23	448.51
-341.93	856.05
-339.63	595.96
-337.34	808.95
-335.04	638.97
-332.75	800.76
-330.45	860.15
-328.16	788.47
-325.87	571.38
-323.58	659.45
-321.29	692.21
-319.00	595.96
-316.71	387.07
-314.42	421.88
-312.14	415.74
-309.85	235.52
-307.57	423.93
-305.28	323.58
-303.00	325.63
-300.72	561.14
-298.44	727.03
-296.16	487.42
-293.88	90.11
-291.60	430.07
-289.32	847.86
-287.04	485.37
-284.77	698.36
-282.49	458.75
-280.22	225.28
-277.94	612.34
-275.67	356.35
-273.40	681.97
-271.13	464.89
-268.85	511.99
-266.59	147.45
-264.32	319.48
-262.05	430.07
-259.78	282.62
-257.51	563.19
-255.25	595.96
-252.98	606.20
-250.72	528.38
-248.46	454.65
-246.20	319.48
-243.93	272.38
-241.67	-14.34
-239.41	331.77
-237.16	454.65
-234.90	503.80
-232.64	362.49
-230.38	505.85
-228.13	604.15
-225.87	360.44
-223.62	245.76
-221.37	245.76
-219.11	444.41
-216.86	243.71
-214.61	446.46
-212.36	462.84
-210.11	495.61
-207.87	112.64
-205.62	475.13
-203.37	194.56
-201.13	600.05
-198.88	354.30
-196.64	643.06
-194.39	493.56
-192.15	280.57
-189.91	501.75
-187.67	442.36
-185.43	43.01
-183.19	380.92
-180.95	368.63
-178.72	358.39
-176.48	372.73
-174.24	208.89
-172.01	344.06
-169.77	59.39
-167.54	595.96
-165.31	344.06
-163.08	276.48
-160.85	276.48
-158.62	456.70
-156.39	538.62
-154.16	284.67
-151.93	569.34
-149.70	497.66
-147.48	473.08
-145.25	346.11
-143.03	448.51
-140.81	442.36
-138.58	241.66
-136.36	569.34
-134.14	458.74
-131.92	356.35
-129.70	761.84
-127.48	362.49
-125.26	532.47
-123.05	454.65
-120.83	335.87
-118.62	499.70
-116.40	325.63
-114.19	313.34
-111.97	227.32
-109.76	284.67
-107.55	198.65
-105.34	530.42
-103.13	112.64
-100.92	354.30
-98.71	462.84
-96.51	561.14
-94.30	415.74
-92.09	436.22
-89.89	264.19
-87.69	577.53
-85.48	913.39
-83.28	374.78
-81.08	468.98
-78.88	612.34
-76.68	649.21
-74.48	368.63
-72.28	495.61
-70.08	681.97
-67.88	423.93
-65.69	516.09
-63.49	581.62
-61.30	616.44
-59.11	421.88
-56.91	434.17
-54.72	493.56
-52.53	473.08
-50.34	686.07
-48.15	589.82
-45.96	536.57
-43.77	509.94
-41.59	796.66
-39.40	276.48
-37.21	378.87
-35.03	370.68
-32.84	509.94
-30.66	577.53
-28.48	677.88
-26.30	632.82
-24.12	991.22
-21.94	1234.93
-19.76	1687.53
-17.58	3139.54
-15.40	5844.90
-13.22	10243.94
-11.05	15871.76
-8.87	21135.04
-6.70	27616.86
-4.52	31270.43
-2.35	29992.50
-0.18	31653.41
1.99	32452.11
4.16	30877.22
6.33	25593.47
8.50	24405.64
10.67	17915.63
12.84	15404.82
15.00	12734.27
17.17	11095.89
19.33	9103.22
21.50	7104.40
23.66	5625.77
25.83	4331.45
27.99	2848.72
30.15	2222.05
32.31	1286.12
34.47	1044.46
36.63	1075.18
38.79	837.62
40.94	528.38
43.10	395.26
45.25	471.03
47.41	542.71
49.56	645.11
51.72	352.25
53.87	421.88
56.02	573.43
58.17	522.23
60.32	249.85
62.47	438.27
64.62	378.87
66.77	612.34
68.92	389.11
71.06	653.30
73.21	315.39
75.35	542.71
77.50	423.93
79.64	854.00
81.78	124.93
83.92	456.70
86.06	491.51
88.20	462.84
90.34	606.20
92.48	471.03
94.62	321.53
96.76	163.84
98.89	460.79
101.03	659.45
103.16	372.73
105.30	731.12
107.43	677.88
109.56	296.96
111.69	518.14
113.82	522.23
115.95	518.14
118.08	299.00
120.21	1083.38
122.34	630.77
124.47	468.98
126.59	630.77
128.72	378.87
130.84	757.75
132.97	432.12
135.09	403.45
137.21	446.46
139.33	311.29
141.45	499.70
143.57	493.56
145.69	323.58
147.81	679.93
149.93	536.57
152.05	223.23
154.16	669.69
156.28	550.90
158.39	536.57
160.51	696.31
162.62	569.34
164.73	823.28
166.85	606.20
168.96	466.94
171.07	565.24
173.18	464.89
175.28	370.68
177.39	231.42
179.50	372.73
181.61	960.50
183.71	614.39
185.82	493.56
187.92	475.13
190.02	636.92
192.13	397.31
194.23	425.98
196.33	411.64
198.43	647.16
200.53	698.36
202.63	811.00
204.72	278.52
206.82	557.05
208.92	159.74
211.01	385.02
213.11	444.41
215.20	448.51
217.30	356.35
219.39	716.79
221.48	561.14
223.57	495.61
225.66	802.80
227.75	227.32
229.84	598.01
231.93	362.49
234.02	581.62
236.10	530.42
238.19	585.72
240.28	368.63
242.36	727.03
244.44	282.62
246.53	571.38
248.61	849.91
250.69	464.89
252.77	991.22
254.85	1034.22
256.93	985.07
259.01	1089.52
261.09	1157.10
263.16	1404.91
265.24	1355.76
267.32	1624.04
269.39	2029.54
271.46	1943.52
273.54	2293.72
275.61	2220.00
277.68	2168.80
279.75	2285.53
281.82	2379.74
283.89	2459.61
285.96	2160.61
288.03	2301.92
290.10	2469.85
292.16	2672.60
294.23	2375.64
296.29	2648.02
298.36	2541.53
300.42	2095.07
302.49	2303.96
304.55	2656.22
306.61	2316.25
308.67	1019.89
310.73	2256.86
312.79	2308.06
314.85	2062.30
316.90	2250.72
318.96	2205.66
321.02	2389.98
323.07	2070.50
325.13	2103.26
327.18	2088.93
329.24	2441.18
331.29	1912.80
333.34	2373.60
335.39	2066.40
337.44	2099.17
339.49	2222.05
341.54	2424.80
343.59	1904.61
345.64	2443.23
347.68	2320.35
349.73	2101.22
351.77	1929.19
353.82	2289.63
355.86	2062.30
357.90	2136.03
359.95	2142.18
361.99	2244.57
364.03	2500.57
366.07	2314.20
368.11	1691.62
370.15	2336.73
372.19	2031.58
374.22	2021.35
376.26	2478.04
378.29	2330.59
380.33	2031.58
382.36	2201.57
384.40	2355.16
386.43	188.41
388.46	2021.35
390.49	2285.53
392.52	2166.75
394.55	2314.20
396.58	2455.51
398.61	2240.48
400.64	2222.05
402.67	2510.81
404.69	2701.27
406.72	2265.05
408.74	2875.35
410.77	2707.41
412.79	2820.05
414.81	2707.41
416.84	2865.11
418.86	2953.17
420.88	3092.43
422.90	3123.15
424.92	3282.89
426.94	3311.57
428.95	3555.27
430.97	3577.80
432.99	3598.28
435.00	3880.90
437.02	3954.63
439.03	3862.47
441.04	3833.80
443.06	3909.57
445.07	3342.28
447.08	3350.48
449.09	3387.34
451.10	3430.35
453.11	3416.01
455.12	3133.39
457.13	3041.23
459.13	3008.47
461.14	2836.44
463.14	2818.01
465.15	2619.35
467.15	2645.98
469.16	2496.47
471.16	2367.45
473.16	2521.05
475.16	2439.13
477.16	2490.33
479.16	2588.63
481.16	2361.31
483.16	2480.09
485.16	2596.82
487.15	2269.15
489.15	2529.24
491.15	2439.13
493.14	2437.08
495.14	2445.27
497.13	2224.09
499.12	2465.75
501.11	2435.03
503.11	2146.27
505.10	2562.01
507.09	2498.52
509.07	2095.07
511.06	2181.09
513.05	1820.64
515.04	1929.19
517.02	2148.32
519.01	2299.87
521.00	1972.19
522.98	2138.08
524.96	2174.94
526.95	2297.82
528.93	2236.38
530.91	2238.43
532.89	2242.53
534.87	2418.65
536.85	2090.98
538.83	1894.37
540.81	2256.86
542.78	2050.02
544.76	1896.42
546.74	1908.71
548.71	2127.84
550.69	2109.41
552.66	2213.85
554.63	2111.46
556.60	2230.24
558.58	1884.13
560.55	1910.75
562.52	2322.40
564.49	2064.35
566.46	2277.34
568.42	2152.42
570.39	2269.15
572.36	2179.04
574.32	2000.87
576.29	2263.01
578.25	2349.02
580.22	1693.67
582.18	2052.06
584.14	2031.58
586.11	2035.68
588.07	2242.53
590.03	1896.42
591.99	1843.17
593.95	2039.78
595.90	2240.48
597.86	2004.96
599.82	2045.92
601.78	2066.40
603.73	1910.75
605.69	1826.79
607.64	2086.88
609.59	2099.17
611.55	1648.61
613.50	2072.54
615.45	1939.43
617.40	1865.70
619.35	1964.00
621.30	2007.01
623.25	2074.59
625.20	2258.91
627.15	2531.29
629.09	2017.25
631.04	1849.32
632.98	2113.50
634.93	1830.88
636.87	1943.52
638.82	1826.79
640.76	1679.33
642.70	1810.40
644.64	2113.50
646.58	1982.43
648.52	2027.49
650.46	2009.06
652.40	1845.22
654.34	1746.92
656.27	1884.13
658.21	1832.93
660.15	1828.84
662.08	2035.68
664.02	1871.84
665.95	2050.02
667.88	1783.78
669.82	1777.64
671.75	1748.97
673.68	1853.41
675.61	2287.58
677.54	2031.59
679.47	2015.20
681.40	1923.04
683.32	1990.63
685.25	1890.28
687.18	1853.41
689.10	1705.96
691.03	2060.26
692.95	1826.79
694.87	1789.92
696.80	1886.18
698.72	1968.10
700.64	1953.76
702.56	1771.49
704.48	1421.29
706.40	1918.95
708.32	2035.68
710.24	1976.29
712.16	1726.44
714.07	2097.12
715.99	1957.86
717.90	1863.65
719.82	2113.50
721.73	1857.51
723.65	1845.22
725.56	1994.72
727.47	1998.82
729.38	1912.80
731.29	2007.01
733.20	2015.20
735.11	2000.87
737.02	1900.51
738.93	1841.12
740.84	2068.45
742.74	1900.52
744.65	1867.75
746.55	1695.72
748.46	1902.56
750.36	1972.19
752.27	1863.65
754.17	1927.14
756.07	1873.89
757.97	1812.45
759.87	1894.37
761.77	1990.63
763.67	2002.91
765.57	1785.83
