raman   n
-2184.52	-55.30
-2181.51	-55.30
-2178.50	-55.30
-2175.49	79.87
-2172.49	-38.91
-2169.48	313.34
-2166.48	-67.58
-2163.48	65.54
-2160.47	-126.97
-2157.47	163.84
-2154.47	-186.37
-2151.48	145.41
-2148.48	100.35
-2145.49	-59.39
-2142.49	-43.01
-2139.50	51.20
-2136.51	0.00
-2133.52	43.01
-2130.53	143.36
-2127.54	616.44
-2124.55	251.90
-2121.57	851.95
-2118.58	532.47
-2115.60	135.17
-2112.62	659.45
-2109.64	753.65
-2106.66	722.93
-2103.68	358.39
-2100.70	485.37
-2097.73	372.73
-2094.75	653.30
-2091.78	473.08
-2088.81	462.84
-2085.83	282.62
-2082.86	-794.61
-2079.90	393.21
-2076.93	679.93
-2073.96	641.01
-2071.00	636.92
-2068.03	673.78
-2065.07	352.25
-2062.11	598.01
-2059.15	610.29
-2056.19	638.97
-2053.23	530.42
-2050.27	759.80
-2047.32	636.92
-2044.36	851.95
-2041.41	493.56
-2038.46	466.94
-2035.51	335.87
-2032.56	929.78
-2029.61	606.20
-2026.66	864.24
-2023.72	428.03
-2020.77	622.58
-2017.83	663.54
-2014.88	509.94
-2011.94	501.75
-2009.00	299.00
-2006.06	655.35
-2003.13	595.96
-2000.19	274.43
-1997.25	329.72
-1994.32	583.67
-1991.39	458.75
-1988.45	395.26
-1985.52	538.62
-1982.59	446.46
-1979.67	659.45
-1976.74	376.83
-1973.81	765.94
-1970.89	356.35
-1967.96	727.03
-1965.04	325.63
-1962.12	577.53
-1959.20	630.77
-1956.28	532.47
-1953.36	389.11
-1950.45	624.63
-1947.53	540.66
-1944.62	491.51
-1941.70	446.46
-1938.79	311.29
-1935.88	495.61
-1932.97	794.61
-1930.06	442.36
-1927.15	311.29
-1924.25	483.32
-1921.34	169.98
-1918.44	245.76
-1915.54	679.93
-1912.63	370.68
-1909.73	559.10
-1906.83	806.90
-1903.94	389.11
-1901.04	483.32
-1898.14	694.26
-1895.25	655.35
-1892.36	245.76
-1889.46	557.05
-1886.57	399.35
-1883.68	344.06
-1880.79	591.86
-1877.91	569.34
-1875.02	518.14
-1872.13	620.53
-1869.25	366.59
-1866.37	432.12
-1863.48	417.79
-1860.60	770.04
-1857.72	468.98
-1854.84	534.52
-1851.97	239.61
-1849.09	514.04
-1846.22	245.76
-1843.34	608.25
-1840.47	448.51
-1837.60	413.69
-1834.73	518.14
-1831.86	722.93
-1828.99	378.87
-1826.12	387.07
-1823.26	657.40
-1820.39	339.96
-1817.53	819.19
-1814.67	370.68
-1811.80	456.70
-1808.94	544.76
-1806.08	518.14
-1803.23	391.16
-1800.37	124.93
-1797.51	720.88
-1794.66	448.51
-1791.81	69.63
-1788.95	477.18
-1786.10	323.58
-1783.25	329.72
-1780.40	344.06
-1777.56	-317.44
-1774.71	442.36
-1771.86	217.08
-1769.02	380.92
-1766.18	346.11
-1763.33	401.40
-1760.49	348.15
-1757.65	450.55
-1754.81	14.34
-1751.98	243.71
-1749.14	319.48
-1746.30	344.06
-1743.47	397.31
-1740.64	546.81
-1737.81	292.86
-1734.97	415.74
-1732.14	358.39
-1729.32	520.18
-1726.49	712.69
-1723.66	708.60
-1720.84	456.70
-1718.01	604.15
-1715.19	208.89
-1712.37	272.38
-1709.55	301.05
-1706.73	501.75
-1703.91	311.29
-1701.09	167.93
-1698.27	382.97
-1695.46	483.32
-1692.65	382.97
-1689.83	454.65
-1687.02	174.08
-1684.21	325.63
-1681.40	217.08
-1678.59	169.98
-1675.78	202.75
-1672.98	172.03
-1670.17	716.79
-1667.37	577.53
-1664.56	419.83
-1661.76	382.97
-1658.96	366.59
-1656.16	137.21
-1653.36	507.90
-1650.57	454.65
-1647.77	393.21
-1644.97	55.30
-1642.18	978.93
-1639.39	262.14
-1636.60	497.66
-1633.80	575.48
-1631.01	380.92
-1628.23	385.02
-1625.44	395.26
-1622.65	901.11
-1619.87	716.79
-1617.08	247.80
-1614.30	376.83
-1611.52	468.98
-1608.74	325.63
-1605.96	321.53
-1603.18	256.00
-1600.40	432.12
-1597.62	530.42
-1594.85	253.95
-1592.07	460.79
-1589.30	430.07
-1586.53	374.78
-1583.76	268.28
-1580.99	280.57
-1578.22	249.85
-1575.45	577.53
-1572.68	575.48
-1569.92	450.55
-1567.15	108.54
-1564.39	518.14
-1561.63	806.90
-1558.86	604.15
-1556.10	479.22
-1553.34	565.24
-1550.59	483.32
-1547.83	657.40
-1545.07	391.16
-1542.32	135.17
-1539.56	415.74
-1536.81	479.22
-1534.06	339.96
-1531.31	417.79
-1528.56	421.88
-1525.81	331.77
-1523.06	262.14
-1520.32	1292.27
-1517.57	331.77
-1514.83	331.77
-1512.09	638.97
-1509.34	329.72
-1506.60	182.27
-1503.86	348.15
-1501.12	157.69
-1498.39	102.40
-1495.65	354.30
-1492.91	233.47
-1490.18	387.07
-1487.45	290.81
-1484.71	485.37
-1481.98	460.79
-1479.25	221.18
-1476.52	325.63
-1473.80	-49.15
-1471.07	274.43
-1468.34	198.65
-1465.62	264.19
-1462.89	626.68
-1460.17	518.14
-1457.45	546.81
-1454.73	401.40
-1452.01	589.82
-1449.29	456.70
-1446.57	366.59
-1443.86	565.24
-1441.14	497.66
-1438.43	223.23
-1435.71	212.99
-1433.00	417.79
-1430.29	184.32
-1427.58	1730.53
-1424.87	337.91
-1422.16	196.60
-1419.46	288.76
-1416.75	-18.43
-1414.05	272.38
-1411.34	411.64
-1408.64	22.53
-1405.94	294.91
-1403.24	413.69
-1400.54	264.19
-1397.84	1818.60
-1395.14	317.44
-1392.45	569.34
-1389.75	372.73
-1387.06	382.97
-1384.36	180.22
-1381.67	462.84
-1378.98	176.13
-1376.29	485.37
-1373.60	403.45
-1370.91	868.34
-1368.23	385.02
-1365.54	608.25
-1362.86	276.48
-1360.17	468.98
-1357.49	491.51
-1354.81	534.52
-1352.13	43.01
-1349.45	643.06
-1346.77	419.83
-1344.09	655.35
-1341.42	620.53
-1338.74	-108.54
-1336.07	258.04
-1333.39	86.01
-1330.72	485.37
-1328.05	258.04
-1325.38	47.10
-1322.71	243.71
-1320.04	32.77
-1317.37	440.31
-1314.71	423.93
-1312.04	491.51
-1309.38	145.41
-1306.72	851.95
-1304.05	600.05
-1301.39	618.49
-1298.73	196.60
-1296.08	309.24
-1293.42	-14.34
-1290.76	315.39
-1288.10	317.44
-1285.45	374.78
-1282.80	444.41
-1280.14	358.39
-1277.49	471.03
-1274.84	382.97
-1272.19	434.17
-1269.54	352.25
-1266.90	253.95
-1264.25	657.40
-1261.60	342.01
-1258.96	337.91
-1256.32	544.76
-1253.67	417.79
-1251.03	438.27
-1248.39	641.01
-1245.75	497.66
-1243.11	548.86
-1240.48	421.88
-1237.84	417.79
-1235.20	442.36
-1232.57	329.72
-1229.94	616.44
-1227.31	360.44
-1224.67	174.08
-1222.04	262.14
-1219.41	542.71
-1216.79	239.61
-1214.16	440.31
-1211.53	511.99
-1208.91	315.39
-1206.28	219.13
-1203.66	442.36
-1201.04	399.35
-1198.42	507.90
-1195.80	288.76
-1193.18	221.18
-1190.56	444.41
-1187.94	444.41
-1185.33	92.16
-1182.71	223.23
-1180.10	303.10
-1177.49	55.30
-1174.87	256.00
-1172.26	421.88
-1169.65	423.93
-1167.04	530.42
-1164.44	407.55
-1161.83	516.09
-1159.22	217.08
-1156.62	204.80
-1154.01	434.17
-1151.41	243.71
-1148.81	530.42
-1146.21	202.75
-1143.61	593.91
-1141.01	227.32
-1138.41	49.15
-1135.81	139.26
-1133.22	204.80
-1130.62	1333.23
-1128.03	305.15
-1125.44	354.30
-1122.84	260.09
-1120.25	350.20
-1117.66	73.73
-1115.07	331.77
-1112.49	260.09
-1109.90	389.11
-1107.31	299.00
-1104.73	155.65
-1102.14	278.52
-1099.56	258.04
-1096.98	180.22
-1094.40	225.28
-1091.82	425.98
-1089.24	567.29
-1086.66	452.60
-1084.08	307.20
-1081.51	149.50
-1078.93	350.20
-1076.36	352.25
-1073.79	231.42
-1071.21	530.42
-1068.64	331.77
-1066.07	-137.21
-1063.50	251.90
-1060.93	487.42
-1058.37	280.57
-1055.80	415.74
-1053.24	405.50
-1050.67	444.41
-1048.11	632.82
-1045.55	372.73
-1042.99	190.46
-1040.42	256.00
-1037.87	511.99
-1035.31	272.38
-1032.75	387.07
-1030.19	417.79
-1027.64	399.35
-1025.08	462.84
-1022.53	75.77
-1019.98	0.00
-1017.43	147.45
-1014.88	135.17
-1012.33	120.83
-1009.78	155.65
-1007.23	180.22
-1004.68	239.61
-1002.14	430.07
-999.59	112.64
-997.05	276.48
-994.51	233.47
-991.96	174.08
-989.42	360.44
-986.88	233.47
-984.34	-96.25
-981.81	372.73
-979.27	90.11
-976.73	628.73
-974.20	-108.54
-971.66	135.17
-969.13	67.58
-966.60	354.30
-964.07	428.03
-961.54	79.87
-959.01	67.58
-956.48	337.91
-953.95	555.00
-951.43	401.40
-948.90	253.95
-946.38	145.41
-943.85	10.24
-941.33	319.48
-938.81	296.96
-936.29	317.44
-933.77	397.31
-931.25	518.14
-928.73	274.43
-926.22	501.75
-923.70	309.24
-921.19	90.11
-918.67	-102.40
-916.16	356.35
-913.65	385.02
-911.14	165.89
-908.63	337.91
-906.12	-14.34
-903.61	425.98
-901.10	485.37
-898.59	432.12
-896.09	405.50
-893.59	55.30
-891.08	417.79
-888.58	430.07
-886.08	587.77
-883.58	100.35
-881.08	507.90
-878.58	636.92
-876.08	526.33
-873.58	524.28
-871.09	172.03
-868.59	511.99
-866.10	227.32
-863.61	176.13
-861.12	294.91
-858.62	337.91
-856.13	303.10
-853.64	284.67
-851.16	272.38
-848.67	133.12
-846.18	301.05
-843.70	425.98
-841.21	145.41
-838.73	274.43
-836.25	421.88
-833.77	102.40
-831.28	299.00
-828.81	319.48
-826.33	210.94
-823.85	239.61
-821.37	139.26
-818.90	147.45
-816.42	317.44
-813.95	393.21
-811.47	466.94
-809.00	-1216.49
-806.53	143.36
-804.06	350.20
-801.59	282.62
-799.12	198.65
-796.65	655.35
-794.19	86.01
-791.72	6.14
-789.26	628.73
-786.79	129.02
-784.33	-16.38
-781.87	159.74
-779.41	59.39
-776.95	225.28
-774.49	206.84
-772.03	63.49
-769.57	303.10
-767.12	-43.01
-764.66	348.15
-762.21	598.01
-759.75	425.98
-757.30	118.78
-754.85	360.44
-752.40	8.19
-749.95	40.96
-747.50	419.83
-745.05	520.18
-742.60	204.80
-740.16	59.39
-737.71	188.41
-735.27	251.90
-732.82	284.67
-730.38	268.28
-727.94	-4.10
-725.50	145.41
-723.06	149.50
-720.62	397.31
-718.18	227.32
-715.74	415.74
-713.31	157.69
-710.87	280.57
-708.44	172.03
-706.01	245.76
-703.57	98.30
-701.14	217.08
-698.71	159.74
-696.28	423.93
-693.85	215.04
-691.42	391.16
-689.00	126.97
-686.57	219.13
-684.15	208.89
-681.72	272.38
-679.30	233.47
-676.88	225.28
-674.45	215.04
-672.03	231.42
-669.61	382.97
-667.20	-77.82
-664.78	6.14
-662.36	-139.26
-659.94	419.83
-657.53	337.91
-655.12	229.37
-652.70	442.36
-650.29	290.81
-647.88	321.53
-645.47	251.90
-643.06	419.83
-640.65	155.65
-638.24	167.93
-635.83	208.89
-633.43	354.30
-631.02	299.00
-628.62	632.82
-626.22	139.26
-623.81	-2058.21
-621.41	241.66
-619.01	-36.86
-616.61	294.91
-614.21	329.72
-611.81	243.71
-609.42	208.89
-607.02	1695.72
-604.63	124.93
-602.23	131.07
-599.84	339.96
-597.45	268.28
-595.05	-32.77
-592.66	106.49
-590.27	75.77
-587.88	536.57
-585.50	391.16
-583.11	303.10
-580.72	278.52
-578.34	368.63
-575.95	161.79
-573.57	378.87
-571.19	28.67
-568.80	249.85
-566.42	385.02
-564.04	196.60
-561.66	317.44
-559.29	235.52
-556.91	167.93
-554.53	204.80
-552.16	221.18
-549.78	151.55
-547.41	190.46
-545.03	552.95
-542.66	180.22
-540.29	215.04
-537.92	219.13
-535.55	294.91
-533.18	409.59
-530.81	270.33
-528.45	690.17
-526.08	147.45
-523.72	518.14
-521.35	114.69
-518.99	77.82
-516.63	96.25
-514.27	350.20
-511.90	233.47
-509.54	434.17
-507.19	296.96
-504.83	552.95
-502.47	212.99
-500.11	239.61
-497.76	473.08
-495.40	473.08
-493.05	385.02
-490.70	495.61
-488.35	233.47
-486.00	303.10
-483.65	544.76
-481.30	460.79
-478.95	442.36
-476.60	550.90
-474.25	325.63
-471.91	311.29
-469.56	331.77
-467.22	522.23
-464.88	481.27
-462.53	434.17
-460.19	419.83
-457.85	634.87
-455.51	600.05
-453.17	-5302.19
-450.84	552.95
-448.50	647.16
-446.16	376.83
-443.83	741.36
-441.49	663.54
-439.16	632.82
-436.83	653.30
-434.50	870.39
-432.16	743.41
-429.83	630.77
-427.50	716.79
-425.18	663.54
-422.85	917.49
-420.52	647.16
-418.20	372.73
-415.87	397.31
-413.55	499.70
-411.22	833.52
-408.90	221.18
-406.58	272.38
-404.26	143.36
-401.94	335.87
-399.62	497.66
-397.30	573.43
-394.99	370.68
-392.67	661.49
-390.35	575.48
-388.04	450.55
-385.73	616.44
-383.41	241.66
-381.10	413.69
-378.79	229.37
-376.48	430.07
-374.17	471.03
-371.86	653.30
-369.55	454.65
-367.25	573.43
-364.94	409.59
-362.64	419.83
-360.33	415.74
-358.03	266.24
-355.73	487.42
-353.42	544.76
-351.12	788.47
-348.82	378.87
-346.52	393.21
-344.23	239.61
-341.93	542.71
-339.63	503.80
-337.34	401.40
-335.04	198.65
-332.75	450.55
-330.45	352.25
-328.16	403.45
-325.87	370.68
-323.58	700.41
-321.29	495.61
-319.00	425.98
-316.71	102.40
-314.42	174.08
-312.14	245.76
-309.85	159.74
-307.57	149.50
-305.28	10.24
-303.00	8.19
-300.72	458.74
-298.44	182.27
-296.16	223.23
-293.88	165.89
-291.60	77.82
-289.32	522.23
-287.04	124.93
-284.77	385.02
-282.49	16.38
-280.22	-106.49
-277.94	385.02
-275.67	108.54
-273.40	432.12
-271.13	245.76
-268.85	296.96
-266.59	-319.48
-264.32	-36.86
-262.05	198.65
-259.78	53.25
-257.51	145.41
-255.25	327.67
-252.98	198.65
-250.72	90.11
-248.46	143.36
-246.20	26.62
-243.93	24.58
-241.67	-380.92
-239.41	137.21
-237.16	81.92
-234.90	32.77
-232.64	-192.51
-230.38	397.31
-228.13	176.13
-225.87	77.82
-223.62	83.97
-221.37	411.64
-219.11	333.82
-216.86	188.41
-214.61	86.01
-212.36	106.49
-210.11	315.39
-207.87	135.17
-205.62	-206.84
-203.37	153.60
-201.13	434.17
-198.88	53.25
-196.64	-67.58
-194.39	120.83
-192.15	223.23
-189.91	86.01
-187.67	419.83
-185.43	294.91
-183.19	126.97
-180.95	4.10
-178.72	120.83
-176.48	120.83
-174.24	47.10
-172.01	208.89
-169.77	-167.93
-167.54	335.87
-165.31	577.53
-163.08	-28.67
-160.85	81.92
-158.62	88.06
-156.39	563.19
-154.16	86.01
-151.93	309.24
-149.70	10.24
-147.48	198.65
-145.25	231.42
-143.03	415.74
-140.81	-67.58
-138.58	-32.77
-136.36	165.89
-134.14	-6.14
-131.92	466.94
-129.70	411.64
-127.48	88.06
-125.26	180.22
-123.05	8.19
-120.83	79.87
-118.62	401.40
-116.40	106.49
-114.19	358.39
-111.97	-16.38
-109.76	131.07
-107.55	-73.73
-105.34	51.20
-103.13	98.30
-100.92	131.07
-98.71	206.84
-96.51	335.87
-94.30	237.56
-92.09	241.66
-89.89	129.02
-87.69	260.09
-85.48	403.45
-83.28	133.12
-81.08	460.79
-78.88	448.51
-76.68	374.78
-74.48	65.54
-72.28	260.09
-70.08	444.41
-67.88	344.06
-65.69	327.67
-63.49	462.84
-61.30	419.83
-59.11	331.77
-56.91	83.97
-54.72	104.45
-52.53	258.04
-50.34	565.24
-48.15	366.59
-45.96	468.98
-43.77	315.39
-41.59	610.29
-39.40	28.67
-37.21	262.14
-35.03	294.91
-32.84	460.79
-30.66	436.22
-28.48	579.58
-26.30	739.32
-24.12	784.37
-21.94	1632.23
-19.76	2508.76
-17.58	4986.80
-15.40	8988.53
-13.22	17743.60
-11.05	28218.96
-8.87	39222.70
-6.70	47043.89
-4.52	53744.84
-2.35	40297.88
-0.18	54781.12
1.99	51766.51
4.16	51328.24
6.33	45413.71
8.50	38526.39
10.67	29013.57
12.84	24047.25
15.00	20930.24
17.17	18636.52
19.33	15357.72
21.50	12001.10
23.66	9367.41
25.83	6989.72
27.99	4378.56
30.15	2811.86
32.31	1710.05
34.47	1110.00
36.63	1064.94
38.79	987.12
40.94	380.92
43.10	329.72
45.25	358.39
47.41	346.11
49.56	458.74
51.72	299.00
53.87	227.32
56.02	514.04
58.17	196.60
60.32	-36.86
62.47	10.24
64.62	45.06
66.77	153.60
68.92	163.84
71.06	415.74
73.21	235.52
75.35	143.36
77.50	376.83
79.64	661.49
81.78	-184.32
83.92	227.32
86.06	163.84
88.20	307.20
90.34	432.12
92.48	382.97
94.62	223.23
96.76	45.06
98.89	262.14
101.03	262.14
103.16	413.69
105.30	319.48
107.43	661.49
109.56	-8.19
111.69	264.19
113.82	251.90
115.95	284.67
118.08	22.53
120.21	499.70
122.34	606.20
124.47	-75.77
126.59	256.00
128.72	169.98
130.84	440.31
132.97	108.54
135.09	-40.96
137.21	317.44
139.33	6.14
141.45	165.89
143.57	53.25
145.69	133.12
147.81	374.78
149.93	729.08
152.05	120.83
154.16	581.62
156.28	208.89
158.39	167.93
160.51	294.91
162.62	733.17
164.73	407.55
166.85	489.46
168.96	286.72
171.07	225.28
173.18	419.83
175.28	307.20
177.39	-30.72
179.50	120.83
181.61	507.90
183.71	573.43
185.82	387.07
187.92	172.03
190.02	442.36
192.13	172.03
194.23	143.36
196.33	299.00
198.43	352.25
200.53	339.96
202.63	464.89
204.72	-55.30
206.82	264.19
208.92	32.77
211.01	278.52
213.11	6.14
215.20	262.14
217.30	145.41
219.39	296.96
221.48	284.67
223.57	114.69
225.66	544.76
227.75	-67.58
229.84	393.21
231.93	133.12
234.02	159.74
236.10	319.48
238.19	163.84
240.28	100.35
242.36	323.58
244.44	378.87
246.53	311.29
248.61	479.22
250.69	446.46
252.77	800.76
254.85	960.50
256.93	813.04
259.01	888.82
261.09	1234.93
263.16	1134.57
265.24	1183.73
267.32	1560.55
269.39	1826.79
271.46	1677.29
273.54	2082.78
275.61	1753.06
277.68	2242.53
279.75	2267.10
281.82	2301.92
283.89	2351.07
285.96	2445.27
288.03	2367.45
290.10	2506.71
292.16	2447.32
294.23	2260.96
296.29	2500.57
298.36	2596.82
300.42	1984.48
302.49	2359.26
304.55	2486.23
306.61	2471.90
308.67	1232.88
310.73	2346.97
312.79	2154.46
314.85	2269.15
316.90	2234.33
318.96	2349.02
321.02	2408.41
323.07	2103.26
325.13	2220.00
327.18	1959.91
329.24	2199.52
331.29	2168.80
333.34	2281.44
335.39	2160.61
337.44	2052.06
339.49	4577.21
341.54	2353.12
343.59	2064.35
345.64	2349.02
347.68	2066.40
349.73	2123.74
351.77	1888.23
353.82	2111.46
355.86	2056.16
357.90	2252.77
359.95	2269.15
361.99	2316.25
364.03	2494.43
366.07	2277.34
368.11	1974.24
370.15	2197.47
372.19	2170.85
374.22	2654.17
376.26	2146.27
378.29	2432.99
380.33	2066.40
382.36	2361.31
384.40	2088.93
386.43	8955.77
388.46	2289.63
390.49	2230.24
392.52	2275.29
394.55	2404.32
396.58	2457.56
398.61	2451.42
400.64	2635.74
402.67	2666.46
404.69	2598.87
406.72	2742.23
408.74	2824.15
410.77	3164.11
412.79	2861.01
414.81	2936.79
416.84	3381.20
418.86	3438.54
420.88	3485.64
422.90	3645.38
424.92	4007.87
426.94	4241.34
428.95	4282.30
430.97	4622.27
432.99	4546.49
435.00	4591.55
437.02	4925.36
439.03	4949.94
441.04	4587.45
443.06	4687.80
445.07	4181.95
447.08	3915.72
449.09	3844.04
451.10	3921.86
453.11	3510.22
455.12	3600.33
457.13	3403.72
459.13	3133.39
461.14	3176.40
463.14	2957.27
465.15	3018.71
467.15	2791.38
469.16	2660.31
471.16	2643.93
473.16	2723.80
475.16	2580.44
477.16	2672.60
479.16	2576.34
481.16	2983.89
483.16	2648.02
485.16	2723.80
487.15	2588.63
489.15	2621.40
491.15	2437.08
493.14	2420.70
495.14	2463.71
497.13	2234.33
499.12	2383.84
501.11	2383.84
503.11	2361.31
505.10	2355.16
507.09	2293.73
509.07	2154.46
511.06	2078.69
513.05	2023.39
515.04	2179.04
517.02	2121.70
519.01	2035.68
521.00	1920.99
522.98	2224.09
524.96	2525.15
526.95	2344.92
528.93	2099.17
530.91	2179.04
532.89	2467.80
534.87	2211.81
536.85	1208.30
538.83	2064.35
540.81	2338.78
542.78	2242.53
544.76	2093.02
546.74	2207.71
548.71	2232.29
550.69	2168.80
552.66	2109.41
554.63	2299.87
556.60	2191.33
558.58	2054.11
560.55	1982.43
562.52	2385.88
564.49	2105.31
566.46	2324.44
568.42	2377.69
570.39	2078.69
572.36	2226.14
574.32	2045.92
576.29	2394.08
578.25	2201.57
580.22	2045.92
582.18	2039.78
584.14	2230.24
586.11	2187.23
588.07	2236.38
590.03	2123.74
591.99	1867.75
593.95	1978.34
595.90	2291.68
597.86	2185.18
599.82	2011.11
601.78	1865.70
603.73	2154.46
605.69	1968.10
607.64	2285.53
609.59	1947.62
611.55	1806.31
613.50	2043.87
615.45	1970.15
617.40	1845.22
619.35	2400.22
621.30	1964.00
623.25	2250.72
625.20	2150.37
627.15	2439.13
629.09	2289.63
631.04	1918.95
632.98	2129.89
634.93	1945.57
636.87	1920.99
638.82	2099.17
640.76	2066.40
642.70	2166.75
644.64	2162.66
646.58	1955.81
648.52	2406.36
650.46	2140.13
652.40	2019.30
654.34	1822.69
656.27	2111.46
658.21	2123.74
660.15	2105.31
662.08	2314.20
664.02	2021.35
665.95	2004.96
667.88	1970.15
669.82	1996.77
671.75	2019.30
673.68	1966.05
675.61	2160.61
677.54	2236.38
679.47	2031.58
681.40	2101.22
683.32	2086.88
685.25	1953.76
687.18	1914.85
689.10	1984.48
691.03	1826.79
692.95	1982.43
694.87	2004.96
696.80	1908.71
698.72	1949.67
700.64	2052.06
702.56	2123.74
704.48	1685.48
706.40	2189.28
708.32	2217.95
710.24	2000.87
712.16	1843.17
714.07	2363.36
715.99	2160.61
717.90	2080.74
719.82	2072.54
721.73	2072.54
723.65	2082.78
725.56	2142.18
727.47	1966.05
729.38	2172.89
731.29	2142.18
733.20	2004.96
735.11	1957.86
737.02	1994.72
738.93	2150.37
740.84	2160.61
742.74	2011.11
744.65	1804.26
746.55	1949.67
748.46	2043.87
750.36	2330.59
752.27	1828.84
754.17	2176.99
756.07	2052.06
757.97	2179.04
759.87	2072.54
761.77	1972.19
763.67	2389.98
765.57	2035.68
767.47	2252.77
769.37	2101.22
771.26	2226.14
773.16	1964.00
775.06	2353.12
776.95	1972.19
